* Estimated atmospheric values for AGRI. Height estimate:    68.8400 +/- 0.0201 m.
* METUTIL Version 3.0  2009-08-27
* Input files: ofulla.292       zagri2.292               ZTD-file sigmas scaled by   1.0
* Yr  Doy Hr Mn Sec  Total Zen  Wet Zen  Sig Zen    PW   Sig PW (mm)  Press (hPa)  Temp (K) ZHD (mm)   Grad NS   Sig NS  Grad EW   Sig EW (mm)
 2022 292  0  0  0.    2382.90   113.90    9.40   18.84    1.56         994.90      300.50   2269.00    -12.10    18.40    -3.80    20.70
 2022 292  1  0  0.    2384.10   115.10    6.70   19.04    1.11         994.90      300.50   2269.00    -12.21    18.42    -4.01    20.68
 2022 292  2  0  0.    2386.30   117.30    6.30   19.40    1.04         994.90      300.50   2269.00    -12.32    18.43    -4.22    20.67
 2022 292  3  0  0.    2392.30   123.30    6.10   20.40    1.01         994.90      300.50   2269.00    -12.42    18.45    -4.42    20.65
 2022 292  4  0  0.    2396.90   127.90    7.00   21.16    1.16         994.90      300.50   2269.00    -12.53    18.47    -4.63    20.63
 2022 292  5  0  0.    2395.30   126.30    7.80   20.89    1.29         994.90      300.50   2269.00    -12.64    18.48    -4.84    20.62
 2022 292  6  0  0.    2397.50   128.50    6.60   21.26    1.09         994.90      300.50   2269.00    -12.75    18.50    -5.05    20.60
 2022 292  7  0  0.    2390.40   121.40    6.00   20.08    0.99         994.90      300.50   2269.00    -12.86    18.52    -5.26    20.58
 2022 292  8  0  0.    2399.60   130.60    6.00   21.60    0.99         994.90      300.50   2269.00    -12.97    18.53    -5.47    20.57
 2022 292  9  0  0.    2405.00   136.00    6.00   22.50    0.99         994.90      300.50   2269.00    -13.07    18.55    -5.68    20.55
 2022 292 10  0  0.    2399.90   130.90    6.50   21.65    1.08         994.90      300.50   2269.00    -13.18    18.57    -5.88    20.53
 2022 292 11  0  0.    2390.90   121.90    5.80   20.17    0.96         994.90      300.50   2269.00    -13.29    18.58    -6.09    20.52
 2022 292 12  0  0.    2386.60   117.60    7.20   19.45    1.19         994.90      300.50   2269.00    -13.40    18.60    -6.30    20.50
 2022 292 13  0  0.    2385.80   116.80    6.40   19.32    1.06         994.90      300.50   2269.00    -13.51    18.62    -6.51    20.48
 2022 292 14  0  0.    2379.40   110.40    7.30   18.26    1.21         994.90      300.50   2269.00    -13.62    18.63    -6.72    20.47
 2022 292 15  0  0.    2382.90   113.90    7.50   18.84    1.24         994.90      300.50   2269.00    -13.72    18.65    -6.93    20.45
 2022 292 16  0  0.    2386.70   117.70   10.10   19.47    1.67         994.90      300.50   2269.00    -13.83    18.67    -7.13    20.43
 2022 292 17  0  0.    2395.20   126.20    8.10   20.88    1.34         994.90      300.50   2269.00    -13.94    18.68    -7.34    20.42
 2022 292 18  0  0.    2390.60   121.60    7.30   20.12    1.21         994.90      300.50   2269.00    -14.05    18.70    -7.55    20.40
 2022 292 19  0  0.    2391.50   122.50    6.70   20.26    1.11         994.90      300.50   2269.00    -14.16    18.72    -7.76    20.38
 2022 292 20  0  0.    2392.70   123.70    6.40   20.46    1.06         994.90      300.50   2269.00    -14.27    18.73    -7.97    20.37
 2022 292 21  0  0.    2395.90   126.90    5.50   20.99    0.91         994.90      300.50   2269.00    -14.38    18.75    -8.18    20.35
 2022 292 22  0  0.    2397.20   128.20    6.70   21.21    1.11         994.90      300.50   2269.00    -14.48    18.77    -8.38    20.33
 2022 292 23  0  0.    2402.30   133.30    7.90   22.05    1.31         994.90      300.50   2269.00    -14.59    18.78    -8.59    20.32
 2022 293  0  0  0.    2402.90   133.90   12.00   22.15    1.99         994.90      300.50   2269.00    -14.70    18.80    -8.80    20.30
