* Estimated atmospheric values for AGRI. Height estimate:    68.8307 +/- 0.0200 m.
* METUTIL Version 3.0  2009-08-27
* Input files: ofulla.291       zagri2.291               ZTD-file sigmas scaled by   1.0
* Yr  Doy Hr Mn Sec  Total Zen  Wet Zen  Sig Zen    PW   Sig PW (mm)  Press (hPa)  Temp (K) ZHD (mm)   Grad NS   Sig NS  Grad EW   Sig EW (mm)
 2022 291  0  0  0.    2401.60   132.90    9.70   21.99    1.61         994.70      300.60   2268.70    -30.20    18.40   -11.70    20.90
 2022 291  1  0  0.    2405.90   137.20    6.70   22.70    1.11         994.70      300.60   2268.70    -29.82    18.42   -11.64    20.90
 2022 291  2  0  0.    2411.90   143.20    6.20   23.69    1.03         994.70      300.60   2268.70    -29.44    18.43   -11.58    20.89
 2022 291  3  0  0.    2410.90   142.20    6.40   23.53    1.06         994.70      300.60   2268.70    -29.06    18.45   -11.51    20.89
 2022 291  4  0  0.    2408.30   139.60    7.10   23.10    1.17         994.70      300.60   2268.70    -28.68    18.47   -11.45    20.88
 2022 291  5  0  0.    2406.60   137.90    7.70   22.82    1.27         994.70      300.60   2268.70    -28.30    18.48   -11.39    20.88
 2022 291  6  0  0.    2410.90   142.20    6.80   23.53    1.13         994.70      300.60   2268.70    -27.93    18.50   -11.33    20.88
 2022 291  7  0  0.    2409.30   140.60    6.30   23.26    1.04         994.70      300.60   2268.70    -27.55    18.52   -11.26    20.87
 2022 291  8  0  0.    2410.60   141.90    6.10   23.48    1.01         994.70      300.60   2268.70    -27.17    18.53   -11.20    20.87
 2022 291  9  0  0.    2405.70   137.00    6.10   22.67    1.01         994.70      300.60   2268.70    -26.79    18.55   -11.14    20.86
 2022 291 10  0  0.    2406.10   137.40    6.70   22.74    1.11         994.70      300.60   2268.70    -26.41    18.57   -11.08    20.86
 2022 291 11  0  0.    2411.80   143.10    5.80   23.68    0.96         994.70      300.60   2268.70    -26.03    18.58   -11.01    20.85
 2022 291 12  0  0.    2403.60   134.90    7.20   22.32    1.19         994.70      300.60   2268.70    -25.65    18.60   -10.95    20.85
 2022 291 13  0  0.    2393.60   124.90    6.70   20.67    1.11         994.70      300.60   2268.70    -25.27    18.62   -10.89    20.85
 2022 291 14  0  0.    2391.40   122.70    6.70   20.30    1.11         994.70      300.60   2268.70    -24.89    18.63   -10.83    20.84
 2022 291 15  0  0.    2395.30   126.60    8.00   20.95    1.32         994.70      300.60   2268.70    -24.51    18.65   -10.76    20.84
 2022 291 16  0  0.    2403.60   134.90   10.70   22.32    1.77         994.70      300.60   2268.70    -24.13    18.67   -10.70    20.83
 2022 291 17  0  0.    2410.50   141.80   10.60   23.46    1.75         994.70      300.60   2268.70    -23.75    18.68   -10.64    20.83
 2022 291 18  0  0.    2405.20   136.50    7.20   22.59    1.19         994.70      300.60   2268.70    -23.38    18.70   -10.58    20.83
 2022 291 19  0  0.    2399.20   130.50    6.80   21.59    1.13         994.70      300.60   2268.70    -23.00    18.72   -10.51    20.82
 2022 291 20  0  0.    2392.00   123.30    6.50   20.40    1.08         994.70      300.60   2268.70    -22.62    18.73   -10.45    20.82
 2022 291 21  0  0.    2386.00   117.30    5.60   19.41    0.93         994.70      300.60   2268.70    -22.24    18.75   -10.39    20.81
 2022 291 22  0  0.    2385.40   116.70    6.50   19.31    1.08         994.70      300.60   2268.70    -21.86    18.77   -10.33    20.81
 2022 291 23  0  0.    2388.50   119.80    7.90   19.82    1.31         994.70      300.60   2268.70    -21.48    18.78   -10.26    20.80
 2022 292  0  0  0.    2388.50   119.80   12.20   19.82    2.02         994.70      300.60   2268.70    -21.10    18.80   -10.20    20.80
