* Estimated atmospheric values for AGRI. Height estimate:    68.8292 +/- 0.0199 m.
* METUTIL Version 3.0  2009-08-27
* Input files: ofulla.289       zagri2.289               ZTD-file sigmas scaled by   1.0
* Yr  Doy Hr Mn Sec  Total Zen  Wet Zen  Sig Zen    PW   Sig PW (mm)  Press (hPa)  Temp (K) ZHD (mm)   Grad NS   Sig NS  Grad EW   Sig EW (mm)
 2022 289  0  0  0.    2401.80   133.80    9.70   22.15    1.61         994.40      300.80   2268.00     17.90    18.70   -20.50    20.50
 2022 289  1  0  0.    2404.30   136.30    6.60   22.56    1.09         994.40      300.80   2268.00     16.67    18.68   -21.05    20.50
 2022 289  2  0  0.    2408.00   140.00    6.30   23.18    1.04         994.40      300.80   2268.00     15.44    18.66   -21.61    20.49
 2022 289  3  0  0.    2416.80   148.80    6.40   24.63    1.06         994.40      300.80   2268.00     14.21    18.64   -22.16    20.49
 2022 289  4  0  0.    2422.90   154.90    7.00   25.64    1.16         994.40      300.80   2268.00     12.98    18.62   -22.72    20.48
 2022 289  5  0  0.    2420.10   152.10    7.70   25.18    1.27         994.40      300.80   2268.00     11.75    18.60   -23.27    20.48
 2022 289  6  0  0.    2420.40   152.40    6.90   25.23    1.14         994.40      300.80   2268.00     10.53    18.58   -23.82    20.48
 2022 289  7  0  0.    2410.10   142.10    6.60   23.52    1.09         994.40      300.80   2268.00      9.30    18.56   -24.38    20.47
 2022 289  8  0  0.    2412.90   144.90    5.80   23.99    0.96         994.40      300.80   2268.00      8.07    18.53   -24.93    20.47
 2022 289  9  0  0.    2408.90   140.90    6.60   23.33    1.09         994.40      300.80   2268.00      6.84    18.51   -25.49    20.46
 2022 289 10  0  0.    2406.00   138.00    6.60   22.85    1.09         994.40      300.80   2268.00      5.61    18.49   -26.04    20.46
 2022 289 11  0  0.    2404.00   136.00    5.70   22.51    0.94         994.40      300.80   2268.00      4.38    18.47   -26.60    20.45
 2022 289 12  0  0.    2400.50   132.50    6.70   21.94    1.11         994.40      300.80   2268.00      3.15    18.45   -27.15    20.45
 2022 289 13  0  0.    2415.10   147.10    6.70   24.35    1.11         994.40      300.80   2268.00      1.92    18.43   -27.70    20.45
 2022 289 14  0  0.    2421.20   153.20    6.30   25.36    1.04         994.40      300.80   2268.00      0.69    18.41   -28.26    20.44
 2022 289 15  0  0.    2420.00   152.00    6.30   25.16    1.04         994.40      300.80   2268.00     -0.54    18.39   -28.81    20.44
 2022 289 16  0  0.    2421.30   153.30    7.50   25.38    1.24         994.40      300.80   2268.00     -1.77    18.37   -29.37    20.43
 2022 289 17  0  0.    2429.70   161.70    8.90   26.77    1.47         994.40      300.80   2268.00     -3.00    18.35   -29.92    20.43
 2022 289 18  0  0.    2423.90   155.90    7.00   25.81    1.16         994.40      300.80   2268.00     -4.22    18.33   -30.47    20.43
 2022 289 19  0  0.    2420.40   152.40    6.50   25.23    1.08         994.40      300.80   2268.00     -5.45    18.31   -31.03    20.42
 2022 289 20  0  0.    2420.90   152.90    6.50   25.31    1.08         994.40      300.80   2268.00     -6.68    18.28   -31.58    20.42
 2022 289 21  0  0.    2425.10   157.10    5.60   26.01    0.93         994.40      300.80   2268.00     -7.91    18.26   -32.14    20.41
 2022 289 22  0  0.    2426.10   158.10    6.40   26.17    1.06         994.40      300.80   2268.00     -9.14    18.24   -32.69    20.41
 2022 289 23  0  0.    2429.10   161.10    7.50   26.67    1.24         994.40      300.80   2268.00    -10.37    18.22   -33.25    20.40
 2022 290  0  0  0.    2429.40   161.40   12.60   26.72    2.09         994.40      300.80   2268.00    -11.60    18.20   -33.80    20.40
