* Estimated atmospheric values for AGRI. Height estimate:    68.8349 +/- 0.0198 m.
* METUTIL Version 3.0  2009-08-27
* Input files: ofulla.295       zagri2.295               ZTD-file sigmas scaled by   1.0
* Yr  Doy Hr Mn Sec  Total Zen  Wet Zen  Sig Zen    PW   Sig PW (mm)  Press (hPa)  Temp (K) ZHD (mm)   Grad NS   Sig NS  Grad EW   Sig EW (mm)
 2022 295  0  0  0.    2399.20   129.20    9.50   21.35    1.57         995.30      300.10   2270.00     -9.00    18.10   -30.80    20.90
 2022 295  1  0  0.    2404.70   134.70    7.30   22.26    1.21         995.30      300.10   2270.00    -10.05    18.06   -29.69    20.88
 2022 295  2  0  0.    2403.00   133.00    6.30   21.98    1.04         995.30      300.10   2270.00    -11.09    18.03   -28.58    20.85
 2022 295  3  0  0.    2406.00   136.00    6.10   22.48    1.01         995.30      300.10   2270.00    -12.14    17.99   -27.48    20.83
 2022 295  4  0  0.    2409.20   139.20    7.80   23.00    1.29         995.30      300.10   2270.00    -13.18    17.95   -26.37    20.80
 2022 295  5  0  0.    2403.50   133.50    7.20   22.06    1.19         995.30      300.10   2270.00    -14.23    17.92   -25.26    20.78
 2022 295  6  0  0.    2400.00   130.00    6.30   21.48    1.04         995.30      300.10   2270.00    -15.28    17.88   -24.15    20.75
 2022 295  7  0  0.    2392.80   122.80    5.90   20.29    0.98         995.30      300.10   2270.00    -16.32    17.84   -23.04    20.73
 2022 295  8  0  0.    2390.00   120.00    6.40   19.83    1.06         995.30      300.10   2270.00    -17.37    17.81   -21.93    20.70
 2022 295  9  0  0.    2384.20   114.20    5.90   18.87    0.98         995.30      300.10   2270.00    -18.41    17.77   -20.82    20.68
 2022 295 10  0  0.    2394.50   124.50    6.20   20.58    1.02         995.30      300.10   2270.00    -19.46    17.73   -19.72    20.65
 2022 295 11  0  0.    2388.10   118.10    5.50   19.52    0.91         995.30      300.10   2270.00    -20.50    17.69   -18.61    20.63
 2022 295 12  0  0.    2377.20   107.20    7.40   17.72    1.22         995.30      300.10   2270.00    -21.55    17.66   -17.50    20.60
 2022 295 13  0  0.    2368.30    98.30    5.70   16.25    0.94         995.30      300.10   2270.00    -22.60    17.62   -16.39    20.58
 2022 295 14  0  0.    2371.00   101.00    6.70   16.69    1.11         995.30      300.10   2270.00    -23.64    17.58   -15.28    20.55
 2022 295 15  0  0.    2381.90   111.90    7.20   18.49    1.19         995.30      300.10   2270.00    -24.69    17.54   -14.18    20.53
 2022 295 16  0  0.    2386.40   116.40    7.20   19.24    1.19         995.30      300.10   2270.00    -25.73    17.51   -13.07    20.50
 2022 295 17  0  0.    2388.20   118.20    7.10   19.53    1.17         995.30      300.10   2270.00    -26.78    17.47   -11.96    20.48
 2022 295 18  0  0.    2389.60   119.60    6.30   19.77    1.04         995.30      300.10   2270.00    -27.83    17.43   -10.85    20.45
 2022 295 19  0  0.    2397.80   127.80    6.70   21.12    1.11         995.30      300.10   2270.00    -28.87    17.39    -9.74    20.43
 2022 295 20  0  0.    2388.70   118.70    6.20   19.62    1.02         995.30      300.10   2270.00    -29.92    17.35    -8.63    20.40
 2022 295 21  0  0.    2386.00   116.00    5.40   19.17    0.89         995.30      300.10   2270.00    -30.96    17.32    -7.52    20.38
 2022 295 22  0  0.    2386.80   116.80    6.40   19.30    1.06         995.30      300.10   2270.00    -32.01    17.28    -6.42    20.35
 2022 295 23  0  0.    2389.70   119.70    6.60   19.78    1.09         995.30      300.10   2270.00    -33.05    17.24    -5.31    20.33
 2022 296  0  0  0.    2396.70   126.70   10.40   20.94    1.72         995.30      300.10   2270.00    -34.10    17.20    -4.20    20.30
