* Estimated atmospheric values for AGRI. Height estimate:    68.8382 +/- 0.0197 m.
* METUTIL Version 3.0  2009-08-27
* Input files: ofulla.294       zagri2.294               ZTD-file sigmas scaled by   1.0
* Yr  Doy Hr Mn Sec  Total Zen  Wet Zen  Sig Zen    PW   Sig PW (mm)  Press (hPa)  Temp (K) ZHD (mm)   Grad NS   Sig NS  Grad EW   Sig EW (mm)
 2022 294  0  0  0.    2400.20   130.50    9.00   21.57    1.49         995.20      300.20   2269.70    -19.30    17.70   -20.50    20.80
 2022 294  1  0  0.    2406.10   136.40    7.00   22.55    1.16         995.20      300.20   2269.70    -19.10    17.68   -20.38    20.77
 2022 294  2  0  0.    2408.80   139.10    6.00   22.99    0.99         995.20      300.20   2269.70    -18.91    17.65   -20.27    20.74
 2022 294  3  0  0.    2414.30   144.60    5.90   23.90    0.98         995.20      300.20   2269.70    -18.71    17.63   -20.15    20.71
 2022 294  4  0  0.    2421.30   151.60    7.20   25.06    1.19         995.20      300.20   2269.70    -18.52    17.60   -20.03    20.68
 2022 294  5  0  0.    2425.20   155.50    7.10   25.70    1.17         995.20      300.20   2269.70    -18.32    17.58   -19.92    20.66
 2022 294  6  0  0.    2433.20   163.50    6.30   27.03    1.04         995.20      300.20   2269.70    -18.13    17.55   -19.80    20.63
 2022 294  7  0  0.    2433.80   164.10    5.90   27.13    0.98         995.20      300.20   2269.70    -17.93    17.53   -19.68    20.60
 2022 294  8  0  0.    2437.00   167.30    6.20   27.66    1.02         995.20      300.20   2269.70    -17.73    17.50   -19.57    20.57
 2022 294  9  0  0.    2433.90   164.20    5.80   27.14    0.96         995.20      300.20   2269.70    -17.54    17.48   -19.45    20.54
 2022 294 10  0  0.    2429.90   160.20    6.40   26.48    1.06         995.20      300.20   2269.70    -17.34    17.45   -19.33    20.51
 2022 294 11  0  0.    2429.90   160.20    6.00   26.48    0.99         995.20      300.20   2269.70    -17.15    17.43   -19.22    20.48
 2022 294 12  0  0.    2413.40   143.70    7.30   23.75    1.21         995.20      300.20   2269.70    -16.95    17.40   -19.10    20.45
 2022 294 13  0  0.    2409.50   139.80    5.90   23.11    0.98         995.20      300.20   2269.70    -16.75    17.38   -18.98    20.42
 2022 294 14  0  0.    2397.60   127.90    7.00   21.14    1.16         995.20      300.20   2269.70    -16.56    17.35   -18.87    20.39
 2022 294 15  0  0.    2392.80   123.10    8.10   20.35    1.34         995.20      300.20   2269.70    -16.36    17.33   -18.75    20.37
 2022 294 16  0  0.    2385.30   115.60   11.00   19.11    1.82         995.20      300.20   2269.70    -16.17    17.30   -18.63    20.34
 2022 294 17  0  0.    2382.80   113.10    7.30   18.70    1.21         995.20      300.20   2269.70    -15.97    17.28   -18.52    20.31
 2022 294 18  0  0.    2391.60   121.90    6.20   20.15    1.02         995.20      300.20   2269.70    -15.78    17.25   -18.40    20.28
 2022 294 19  0  0.    2390.60   120.90    6.60   19.99    1.09         995.20      300.20   2269.70    -15.58    17.23   -18.28    20.25
 2022 294 20  0  0.    2378.70   109.00    6.10   18.02    1.01         995.20      300.20   2269.70    -15.38    17.20   -18.17    20.22
 2022 294 21  0  0.    2380.70   111.00    5.30   18.35    0.88         995.20      300.20   2269.70    -15.19    17.18   -18.05    20.19
 2022 294 22  0  0.    2390.00   120.30    6.30   19.89    1.04         995.20      300.20   2269.70    -14.99    17.15   -17.93    20.16
 2022 294 23  0  0.    2393.00   123.30    6.80   20.38    1.12         995.20      300.20   2269.70    -14.80    17.13   -17.82    20.13
 2022 295  0  0  0.    2399.00   129.30   10.70   21.37    1.77         995.20      300.20   2269.70    -14.60    17.10   -17.70    20.10
